** Structure <2095004>, 19 tags, length=96084, data length=96082, refs=2:
   R0              DOUBLE           1400.0000
   R3              DOUBLE           1197.8940
   TSURF           DOUBLE           40.000000
   NUSTP           DOUBLE       0.00029800000
   KAPPA0          DOUBLE           5.6300000
   ALPHA           DOUBLE           1.1200000
   MP              DOUBLE       1.3049700e+25
   MU0             DOUBLE           28.010000
   CP              DOUBLE           10393091.
   DISTOBS         DOUBLE       4.5061724e+14
   LAMBDA          DOUBLE          0.70000000
   DELTA_TIME      DOUBLE           1000000.0
   DR_UPPER        INT             10
   DR_INV          FLOAT          0.500000
   DR_TRANS        FLOAT         0.0500000
   DR_LOWER        FLOAT          0.500000
   TTOL            DOUBLE        0.0010000000
   YDAT            DOUBLE    Array[7997]
   PHIDAT          FLOAT     Array[7997]
** Structure <d300694>, 15 tags, length=112, data length=112, refs=2:
   P0              DOUBLE          0.14925841
   T0              FLOAT           74.9230
   DT0             DOUBLE         -0.16100000
   R1              DOUBLE           1286.8000
   K1REF           DOUBLE           555.00000
   HTAU1           DOUBLE           16.600000
   C               DOUBLE           0.0000000
   DELTA_T3        DOUBLE           37.150000
   HEAT3           DOUBLE       3.0000000e-08
   HHEAT           DOUBLE           10.000000
   T4              DOUBLE           40.000000
   DELTA_R4        DOUBLE           3.0000000
   GAMMA           DOUBLE           1.0000000
   DELTA_R5        DOUBLE           5.0000000
   DT5             FLOAT         -0.100000
 altitude_(km) Temperature_(K) Pressure_(microbar)
       0.00000        40.50000          1.0613E+01
       0.47797        40.45220          1.0355E+01
       0.95594        40.40441          1.0103E+01
       1.43390        40.35661          9.8575E+00
       1.91187        40.30881          9.6177E+00
       1.96129        40.30428          9.5932E+00
       2.01078        40.30057          9.5688E+00
       2.06033        40.29768          9.5444E+00
       2.10992        40.29561          9.5201E+00
       2.15953        40.29436          9.4958E+00
       2.20916        40.29392          9.4715E+00
       2.25879        40.29432          9.4473E+00
       2.30840        40.29553          9.4232E+00
       2.35799        40.29756          9.3992E+00
       2.40754        40.30041          9.3752E+00
       2.45703        40.30408          9.3514E+00
       2.50646        40.30857          9.3276E+00
       2.55580        40.31388          9.3039E+00
       2.60505        40.32000          9.2804E+00
       2.65420        40.32693          9.2569E+00
       2.70322        40.33468          9.2336E+00
       2.75211        40.34324          9.2105E+00
       2.80084        40.35261          9.1874E+00
       2.84942        40.36278          9.1645E+00
       2.89782        40.37375          9.1417E+00
       2.94604        40.38552          9.1191E+00
       2.99405        40.39809          9.0967E+00
       3.04185        40.41145          9.0744E+00
       3.08942        40.42560          9.0523E+00
       3.13675        40.44053          9.0304E+00
       3.18382        40.45625          9.0086E+00
       3.23063        40.47274          8.9870E+00
       3.27716        40.49000          8.9657E+00
       3.32340        40.50803          8.9445E+00
       3.36933        40.52683          8.9235E+00
       3.41495        40.54638          8.9027E+00
       3.46024        40.56668          8.8821E+00
       3.50518        40.58773          8.8618E+00
       3.54977        40.60952          8.8416E+00
       3.59400        40.63204          8.8217E+00
       3.63784        40.65530          8.8020E+00
       3.68130        40.67927          8.7826E+00
       3.72435        40.70396          8.7634E+00
       3.76699        40.72936          8.7444E+00
       3.80920        40.75546          8.7256E+00
       3.85097        40.78226          8.7072E+00
       3.89230        40.80974          8.6889E+00
       3.93316        40.83791          8.6709E+00
       3.97356        40.86674          8.6532E+00
       4.01347        40.89624          8.6357E+00
       4.05289        40.92640          8.6185E+00
       4.09180        40.95720          8.6016E+00
       4.13020        40.98865          8.5849E+00
       4.16807        41.02072          8.5685E+00
       4.20541        41.05342          8.5524E+00
       4.24220        41.08673          8.5366E+00
       4.27843        41.12064          8.5210E+00
       4.31410        41.15515          8.5058E+00
       4.34920        41.19024          8.4908E+00
       4.38370        41.22591          8.4761E+00
       4.41762        41.26215          8.4617E+00
       4.45093        41.29894          8.4476E+00
       4.48362        41.33628          8.4338E+00
       4.51570        41.37415          8.4203E+00
       4.54714        41.41255          8.4070E+00
       4.57794        41.45147          8.3941E+00
       4.60810        41.49088          8.3815E+00
       4.63760        41.53080          8.3692E+00
       4.66643        41.57119          8.3572E+00
       4.69459        41.61205          8.3455E+00
       4.72208        41.65338          8.3341E+00
       4.74887        41.69516          8.3231E+00
       4.77497        41.73737          8.3123E+00
       4.80037        41.78001          8.3019E+00
       4.82506        41.82306          8.2917E+00
       4.84904        41.86651          8.2819E+00
       4.87229        41.91036          8.2724E+00
       4.89481        41.95458          8.2632E+00
       4.91660        41.99918          8.2544E+00
       4.93765        42.04412          8.2459E+00
       4.95795        42.08941          8.2376E+00
       4.97750        42.13503          8.2297E+00
       4.99629        42.18096          8.2222E+00
       5.01432        42.22720          8.2149E+00
       5.03159        42.27373          8.2080E+00
       5.04808        42.32054          8.2014E+00
       5.06379        42.36762          8.1951E+00
       5.07873        42.41495          8.1891E+00
       5.09287        42.46252          8.1835E+00
       5.10623        42.51031          8.1782E+00
       5.11880        42.55833          8.1732E+00
       5.13057        42.60654          8.1685E+00
       5.14154        42.65494          8.1642E+00
       5.15171        42.70352          8.1601E+00
       5.16108        42.75226          8.1565E+00
       5.16963        42.80115          8.1531E+00
       5.17738        42.85017          8.1500E+00
       5.18431        42.89931          8.1473E+00
       5.19044        42.94856          8.1449E+00
       5.19574        42.99791          8.1428E+00
       5.20023        43.04733          8.1411E+00
       5.20390        43.09683          8.1397E+00
       5.24689        43.74977          8.1230E+00
       5.74592        49.77504          7.9457E+00
       6.24494        54.81343          7.7906E+00
       6.74397        59.14989          7.6511E+00
       7.24300        62.95250          7.5234E+00
       7.74203        66.33066          7.4048E+00
       8.24105        69.36061          7.2936E+00
       8.74008        72.09815          7.1887E+00
       9.23911        74.58567          7.0889E+00
       9.73813        76.85638          6.9938E+00
      10.23716        78.93688          6.9026E+00
      10.73619        80.84896          6.8148E+00
      11.23522        82.61070          6.7303E+00
      11.73424        84.23739          6.6485E+00
      12.23327        85.74204          6.5692E+00
      12.73230        87.13590          6.4923E+00
      13.23132        88.42875          6.4175E+00
      13.73035        89.62919          6.3446E+00
      14.22938        90.74481          6.2735E+00
      14.72841        91.78240          6.2042E+00
      15.22743        92.74800          6.1364E+00
      15.72646        93.64709          6.0700E+00
      16.22549        94.48458          6.0050E+00
      16.72452        95.26495          5.9413E+00
      17.22354        95.99229          5.8789E+00
      17.72257        96.67032          5.8176E+00
      18.22160        97.30246          5.7574E+00
      18.72062        97.89184          5.6982E+00
      19.21965        98.44135          5.6400E+00
      19.71868        98.95367          5.5828E+00
      20.21771        99.43125          5.5265E+00
      20.71673        99.87637          5.4710E+00
      21.21576       100.29115          5.4164E+00
      21.71479       100.67754          5.3626E+00
      22.21381       101.03737          5.3096E+00
      22.71284       101.37233          5.2573E+00
      23.21187       101.68398          5.2057E+00
      23.71090       101.97381          5.1549E+00
      24.20992       102.24316          5.1047E+00
      24.70895       102.49332          5.0551E+00
      25.20798       102.72547          5.0062E+00
      25.70700       102.94072          4.9580E+00
      26.20603       103.14011          4.9103E+00
      26.70506       103.32460          4.8632E+00
      27.20409       103.49508          4.8167E+00
      27.70311       103.65242          4.7707E+00
      28.20214       103.79739          4.7253E+00
      28.70117       103.93073          4.6804E+00
      29.20019       104.05314          4.6360E+00
      29.69922       104.16526          4.5921E+00
      30.19825       104.26770          4.5487E+00
      30.69728       104.36101          4.5058E+00
      31.19630       104.44575          4.4634E+00
      31.69533       104.52239          4.4214E+00
      32.19436       104.59141          4.3799E+00
      32.69338       104.65325          4.3389E+00
      33.19241       104.70831          4.2983E+00
      33.69144       104.75698          4.2581E+00
      34.19047       104.79963          4.2183E+00
      34.68949       104.83658          4.1790E+00
      35.18852       104.86816          4.1401E+00
      35.68755       104.89467          4.1016E+00
      36.18657       104.91639          4.0634E+00
      36.68560       104.93357          4.0257E+00
      37.18463       104.94648          3.9884E+00
      37.68366       104.95533          3.9514E+00
      38.18268       104.96035          3.9148E+00
      38.68171       104.96175          3.8786E+00
      39.18074       104.95971          3.8427E+00
      39.67976       104.95442          3.8073E+00
      40.17879       104.94606          3.7721E+00
      40.67782       104.93477          3.7373E+00
      41.17685       104.92071          3.7029E+00
      41.67587       104.90403          3.6688E+00
      42.17490       104.88485          3.6350E+00
      42.67393       104.86331          3.6016E+00
      43.17295       104.83952          3.5684E+00
      43.67198       104.81360          3.5356E+00
      44.17101       104.78565          3.5032E+00
      44.67004       104.75576          3.4710E+00
      45.16906       104.72404          3.4392E+00
      45.66809       104.69056          3.4076E+00
      46.16712       104.65542          3.3764E+00
      46.66614       104.61869          3.3455E+00
      47.16517       104.58045          3.3148E+00
      47.66420       104.54076          3.2845E+00
      48.16323       104.49969          3.2545E+00
      48.66225       104.45730          3.2247E+00
      49.16128       104.41365          3.1952E+00
      49.66031       104.36880          3.1660E+00
      50.15933       104.32279          3.1371E+00
      50.65836       104.27568          3.1084E+00
      51.15739       104.22752          3.0801E+00
      51.65642       104.17833          3.0520E+00
      52.15544       104.12818          3.0241E+00
      52.65447       104.07709          2.9965E+00
      53.15350       104.02510          2.9692E+00
      53.65252       103.97225          2.9422E+00
      54.15155       103.91857          2.9154E+00
      54.65058       103.86409          2.8888E+00
      55.14961       103.80884          2.8625E+00
      55.64863       103.75285          2.8364E+00
      56.14766       103.69615          2.8106E+00
      56.64669       103.63875          2.7851E+00
      57.14572       103.58069          2.7597E+00
      57.64474       103.52198          2.7346E+00
      58.14377       103.46265          2.7098E+00
      58.64280       103.40271          2.6851E+00
      59.14182       103.34219          2.6607E+00
      59.64085       103.28110          2.6365E+00
      60.13988       103.21946          2.6126E+00
      60.63891       103.15729          2.5889E+00
      61.13793       103.09459          2.5653E+00
      61.63696       103.03140          2.5421E+00
      62.13599       102.96771          2.5190E+00
      62.63501       102.90354          2.4961E+00
      63.13404       102.83891          2.4735E+00
      63.63307       102.77383          2.4510E+00
      64.13210       102.70830          2.4288E+00
      64.63112       102.64235          2.4068E+00
      65.13015       102.57597          2.3849E+00
      65.62918       102.50918          2.3633E+00
      66.12820       102.44199          2.3419E+00
      66.62723       102.37440          2.3207E+00
      67.12626       102.30644          2.2996E+00
      67.62529       102.23809          2.2788E+00
      68.12431       102.16938          2.2581E+00
      68.62334       102.10030          2.2377E+00
      69.12237       102.03087          2.2174E+00
      69.62139       101.96110          2.1973E+00
      70.12042       101.89098          2.1774E+00
      70.61945       101.82053          2.1577E+00
      71.11848       101.74975          2.1382E+00
      71.61750       101.67864          2.1188E+00
      72.11653       101.60722          2.0996E+00
      72.61556       101.53549          2.0806E+00
      73.11458       101.46345          2.0618E+00
      73.61361       101.39111          2.0431E+00
      74.11264       101.31847          2.0246E+00
      74.61167       101.24553          2.0063E+00
      75.11069       101.17231          1.9881E+00
      75.60972       101.09881          1.9701E+00
      76.10875       101.02503          1.9523E+00
      76.60777       100.95097          1.9347E+00
      77.10680       100.87664          1.9172E+00
      77.60583       100.80204          1.8998E+00
      78.10486       100.72718          1.8826E+00
      78.60388       100.65205          1.8656E+00
      79.10291       100.57667          1.8487E+00
      79.60194       100.50104          1.8320E+00
      80.10096       100.42515          1.8154E+00
      80.59999       100.34902          1.7990E+00
      81.09902       100.27264          1.7827E+00
      81.59805       100.19603          1.7666E+00
      82.09707       100.11917          1.7506E+00
      82.59610       100.04208          1.7348E+00
      83.09513        99.96476          1.7191E+00
      83.59415        99.88720          1.7036E+00
      84.09318        99.80942          1.6882E+00
      84.59221        99.73142          1.6729E+00
      85.09124        99.65319          1.6578E+00
      85.59026        99.57474          1.6428E+00
      86.08929        99.49608          1.6279E+00
      86.58832        99.41720          1.6132E+00
      87.08734        99.33811          1.5986E+00
      87.58637        99.25882          1.5841E+00
      88.08540        99.17931          1.5698E+00
      88.58443        99.09960          1.5556E+00
      89.08345        99.01968          1.5415E+00
      89.58248        98.93956          1.5276E+00
      90.08151        98.85925          1.5138E+00
      90.58053        98.77874          1.5001E+00
      91.07956        98.69803          1.4865E+00
      91.57859        98.61713          1.4731E+00
      92.07762        98.53604          1.4598E+00
      92.57664        98.45476          1.4465E+00
      93.07567        98.37330          1.4335E+00
      93.57470        98.29165          1.4205E+00
      94.07372        98.20981          1.4076E+00
      94.57275        98.12780          1.3949E+00
      95.07178        98.04560          1.3823E+00
      95.57081        97.96323          1.3698E+00
      96.06983        97.88068          1.3574E+00
      96.56886        97.79796          1.3451E+00
      97.06789        97.71506          1.3329E+00
      97.56692        97.63199          1.3209E+00
      98.06594        97.54875          1.3089E+00
      98.56497        97.46535          1.2970E+00
      99.06400        97.38178          1.2853E+00
      99.56302        97.29804          1.2737E+00
     100.06205        97.21414          1.2621E+00
     100.56108        97.13007          1.2507E+00
     101.06011        97.04585          1.2394E+00
     101.55913        96.96147          1.2281E+00
     102.05816        96.87692          1.2170E+00
     102.55719        96.79223          1.2060E+00
     103.05621        96.70737          1.1951E+00
     103.55524        96.62237          1.1842E+00
     104.05427        96.53721          1.1735E+00
     104.55330        96.45190          1.1629E+00
     105.05232        96.36643          1.1523E+00
     105.55135        96.28082          1.1419E+00
     106.05038        96.19507          1.1315E+00
     106.54940        96.10916          1.1213E+00
     107.04843        96.02311          1.1111E+00
     107.54746        95.93692          1.1010E+00
     108.04649        95.85058          1.0910E+00
     108.54551        95.76410          1.0811E+00
     109.04454        95.67748          1.0713E+00
     109.54357        95.59072          1.0616E+00
     110.04259        95.50382          1.0520E+00
     110.54162        95.41678          1.0424E+00
     111.04065        95.32961          1.0330E+00
     111.53968        95.24230          1.0236E+00
     112.03870        95.15485          1.0143E+00
     112.53773        95.06727          1.0051E+00
     113.03676        94.97956          9.9594E-01
     113.53578        94.89171          9.8689E-01
     114.03481        94.80374          9.7792E-01
     114.53384        94.71563          9.6904E-01
     115.03287        94.62739          9.6023E-01
     115.53189        94.53902          9.5150E-01
     116.03092        94.45053          9.4285E-01
     116.52995        94.36191          9.3427E-01
     117.02897        94.27316          9.2577E-01
     117.52800        94.18428          9.1735E-01
     118.02703        94.09528          9.0901E-01
     118.52606        94.00615          9.0073E-01
     119.02508        93.91690          8.9253E-01
     119.52411        93.82753          8.8441E-01
     120.02314        93.73803          8.7635E-01
     120.52216        93.64841          8.6837E-01
     121.02119        93.55867          8.6046E-01
     121.52022        93.46881          8.5262E-01
     122.01925        93.37883          8.4485E-01
     122.51827        93.28873          8.3715E-01
     123.01730        93.19851          8.2952E-01
     123.51633        93.10817          8.2196E-01
     124.01535        93.01771          8.1446E-01
     124.51438        92.92713          8.0703E-01
     125.01341        92.83644          7.9967E-01
     125.51244        92.74563          7.9237E-01
     126.01146        92.65470          7.8514E-01
     126.51049        92.56366          7.7797E-01
     127.00952        92.47250          7.7086E-01
     127.50854        92.38122          7.6382E-01
     128.00757        92.28983          7.5684E-01
     128.50660        92.19833          7.4993E-01
     129.00563        92.10671          7.4307E-01
     129.50465        92.01498          7.3628E-01
     130.00368        91.92313          7.2954E-01
     130.50271        91.83117          7.2287E-01
     131.00173        91.73910          7.1626E-01
     131.50076        91.64692          7.0970E-01
     131.99979        91.55462          7.0321E-01
     132.49882        91.46221          6.9677E-01
     132.99784        91.36969          6.9039E-01
     133.49687        91.27705          6.8406E-01
     133.99590        91.18431          6.7779E-01
     134.49492        91.09145          6.7158E-01
     134.99395        90.99848          6.6542E-01
     135.49298        90.90540          6.5932E-01
     135.99201        90.81221          6.5327E-01
     136.49103        90.71891          6.4728E-01
     136.99006        90.62550          6.4134E-01
     137.48909        90.53197          6.3545E-01
     137.98812        90.43834          6.2962E-01
     138.48714        90.34460          6.2383E-01
     138.98617        90.25075          6.1810E-01
     139.48520        90.15678          6.1242E-01
     139.98422        90.06271          6.0679E-01
     140.48325        89.96853          6.0121E-01
     140.98228        89.87423          5.9568E-01
     141.48131        89.77983          5.9020E-01
     141.98033        89.68532          5.8476E-01
     142.47936        89.59069          5.7938E-01
     142.97839        89.49596          5.7404E-01
     143.47741        89.40112          5.6876E-01
     143.97644        89.30616          5.6351E-01
     144.47547        89.21110          5.5832E-01
     144.97450        89.11593          5.5317E-01
     145.47352        89.02064          5.4807E-01
     145.97255        88.92525          5.4301E-01
     146.47158        88.82975          5.3800E-01
     146.97060        88.73414          5.3303E-01
     147.46963        88.63841          5.2811E-01
     147.96866        88.54258          5.2323E-01
     148.46769        88.44664          5.1839E-01
     148.96671        88.35058          5.1360E-01
     149.46574        88.25442          5.0885E-01
     149.96477        88.15814          5.0414E-01
     150.46379        88.06175          4.9948E-01
     150.96282        87.96526          4.9485E-01
     151.46185        87.86865          4.9027E-01
     151.96088        87.77193          4.8573E-01
     152.45990        87.67509          4.8123E-01
     152.95893        87.57815          4.7676E-01
     153.45796        87.48110          4.7234E-01
     153.95698        87.38393          4.6796E-01
     154.45601        87.28665          4.6362E-01
     154.95504        87.18926          4.5931E-01
     155.45407        87.09175          4.5504E-01
     155.95309        86.99414          4.5082E-01
     156.45212        86.89641          4.4663E-01
     156.95115        86.79856          4.4247E-01
     157.45017        86.70061          4.3836E-01
     157.94920        86.60254          4.3428E-01
     158.44823        86.50436          4.3023E-01
     158.94726        86.40606          4.2623E-01
     159.44628        86.30765          4.2226E-01
     159.94531        86.20912          4.1832E-01
     160.44434        86.11048          4.1442E-01
     160.94336        86.01172          4.1055E-01
     161.44239        85.91285          4.0672E-01
     161.94142        85.81386          4.0293E-01
     162.44045        85.71476          3.9916E-01
     162.93947        85.61554          3.9543E-01
     163.43850        85.51620          3.9174E-01
     163.93753        85.41675          3.8807E-01
     164.43655        85.31717          3.8444E-01
     164.93558        85.21749          3.8084E-01
     165.43461        85.11768          3.7728E-01
     165.93364        85.01776          3.7374E-01
     166.43266        84.91771          3.7024E-01
     166.93169        84.81755          3.6677E-01
     167.43072        84.71727          3.6333E-01
     167.92974        84.61687          3.5992E-01
     168.42877        84.51635          3.5654E-01
     168.92780        84.41571          3.5319E-01
     169.42683        84.31495          3.4987E-01
     169.92585        84.21407          3.4659E-01
     170.42488        84.11307          3.4333E-01
     170.92391        84.01195          3.4009E-01
     171.42293        83.91070          3.3689E-01
     171.92196        83.80933          3.3372E-01
     172.42099        83.70784          3.3058E-01
     172.92002        83.60623          3.2746E-01
     173.41904        83.50449          3.2437E-01
     173.91807        83.40263          3.2131E-01
     174.41710        83.30064          3.1828E-01
     174.91612        83.19853          3.1527E-01
     175.41515        83.09630          3.1229E-01
     175.91418        82.99394          3.0934E-01
     176.41321        82.89145          3.0641E-01
     176.91223        82.78884          3.0351E-01
     177.41126        82.68610          3.0064E-01
     177.91029        82.58323          2.9779E-01
     178.40932        82.48023          2.9497E-01
     178.90834        82.37711          2.9217E-01
     179.40737        82.27386          2.8940E-01
     179.90640        82.17048          2.8665E-01
     180.40542        82.06697          2.8393E-01
     180.90445        81.96333          2.8123E-01
     181.40348        81.85956          2.7855E-01
     181.90251        81.75566          2.7590E-01
     182.40153        81.65162          2.7328E-01
     182.90056        81.54746          2.7067E-01
     183.39959        81.44316          2.6809E-01
     183.89861        81.33873          2.6554E-01
     184.39764        81.23417          2.6301E-01
     184.89667        81.12948          2.6049E-01
     185.39570        81.02465          2.5801E-01
     185.89472        80.91968          2.5554E-01
     186.39375        80.81458          2.5310E-01
     186.89278        80.70935          2.5068E-01
     187.39180        80.60397          2.4828E-01
     187.89083        80.49846          2.4590E-01
     188.38986        80.39282          2.4354E-01
     188.88889        80.28704          2.4121E-01
     189.38791        80.18111          2.3889E-01
     189.88694        80.07505          2.3660E-01
     190.38597        79.96885          2.3433E-01
     190.88499        79.86251          2.3207E-01
     191.38402        79.75603          2.2984E-01
     191.88305        79.64941          2.2763E-01
     192.38208        79.54265          2.2544E-01
     192.88110        79.43575          2.2327E-01
     193.38013        79.32870          2.2111E-01
     193.87916        79.22151          2.1898E-01
     194.37818        79.11417          2.1687E-01
     194.87721        79.00670          2.1477E-01
     195.37624        78.89907          2.1269E-01
     195.87527        78.79130          2.1064E-01
     196.37429        78.68339          2.0860E-01
     196.87332        78.57533          2.0658E-01
     197.37235        78.46712          2.0458E-01
     197.87137        78.35877          2.0259E-01
     198.37040        78.25026          2.0063E-01
     198.86943        78.14161          1.9868E-01
     199.36846        78.03281          1.9675E-01
     199.86748        77.92385          1.9484E-01
     200.36651        77.81475          1.9294E-01
     200.86554        77.70549          1.9106E-01
     201.36456        77.59609          1.8920E-01
     201.86359        77.48653          1.8735E-01
     202.36262        77.37681          1.8553E-01
     202.86165        77.26695          1.8372E-01
     203.36067        77.15692          1.8192E-01
     203.85970        77.04675          1.8014E-01
     204.35873        76.93641          1.7838E-01
     204.85775        76.82593          1.7663E-01
     205.35678        76.71528          1.7490E-01
     205.85581        76.60447          1.7319E-01
     206.35484        76.49351          1.7149E-01
     206.85386        76.38239          1.6980E-01
     207.35289        76.27111          1.6814E-01
     207.85192        76.15966          1.6648E-01
     208.35094        76.04806          1.6484E-01
     208.84997        75.93629          1.6322E-01
     209.34900        75.82437          1.6161E-01
     209.84803        75.71227          1.6002E-01
     210.34705        75.60002          1.5844E-01
     210.84608        75.48760          1.5687E-01
     211.34511        75.37501          1.5532E-01
     211.84413        75.26226          1.5379E-01
     212.34316        75.14934          1.5226E-01
     212.84219        75.03625          1.5075E-01
     213.34122        74.92300          1.4926E-01
     223.34122        73.33577          1.2214E-01
     233.34122        71.79304          9.9802E-02
     243.34122        70.29324          8.1434E-02
     253.34122        68.83491          6.6350E-02
     263.34122        67.41661          5.3983E-02
     273.34122        66.03698          4.3858E-02
     283.34122        64.69471          3.5580E-02
     293.34122        63.38855          2.8823E-02
     303.34122        62.11730          2.3316E-02
     313.34122        60.87979          1.8834E-02
     323.34122        59.67491          1.5192E-02
     333.34122        58.50159          1.2236E-02
     343.34122        57.35881          9.8413E-03
     353.34122        56.24559          7.9038E-03
     363.34122        55.16097          6.3386E-03
     373.34122        54.10403          5.0761E-03
     383.34122        53.07391          4.0592E-03
     393.34122        52.06976          3.2413E-03
     403.34122        51.09076          2.5845E-03
     413.34122        50.13614          2.0578E-03
     423.34122        49.20513          1.6361E-03
     433.34122        48.29702          1.2989E-03
     443.34122        47.41110          1.0298E-03
     453.34122        46.54671          8.1522E-04
     463.34122        45.70318          6.4443E-04
     473.34122        44.87990          5.0869E-04
     483.34122        44.07627          4.0096E-04
     493.34122        43.29169          3.1559E-04
     503.34122        42.52561          2.4804E-04
     513.34122        41.77749          1.9467E-04
     523.34122        41.04680          1.5256E-04
     533.34122        40.33304          1.1939E-04
     543.34122        39.63572          9.3295E-05
     553.34122        38.95438          7.2799E-05
     563.34122        38.28855          5.6724E-05
     573.34122        37.63780          4.4135E-05
     583.34122        37.00170          3.4290E-05
     593.34122        36.37985          2.6603E-05
     603.34122        35.77184          2.0610E-05
     613.34122        35.17730          1.5943E-05
     623.34122        34.59585          1.2316E-05
